Wavelength	T
600.00	91.8
599.00	91.8
598.00	91.7
597.00	91.7
596.00	91.7
595.00	91.7
594.00	91.6
593.00	91.6
592.00	91.6
591.00	91.6
590.00	91.6
589.00	91.5
588.00	91.5
587.00	91.5
586.00	91.5
585.00	91.5
584.00	91.5
583.00	91.4
582.00	91.4
581.00	91.4
580.00	91.4
579.00	91.4
578.00	91.3
577.00	91.3
576.00	91.3
575.00	91.3
574.00	91.3
573.00	91.3
572.00	91.2
571.00	91.2
570.00	91.2
569.00	91.2
568.00	91.2
567.00	91.2
566.00	91.1
565.00	91.1
564.00	91.1
563.00	91.1
562.00	91.1
561.00	91.0
560.00	91.0
559.00	91.0
558.00	91.0
557.00	90.9
556.00	90.9
555.00	90.9
554.00	90.9
553.00	90.8
552.00	90.8
551.00	90.8
550.00	90.8
549.00	90.7
548.00	90.7
547.00	90.7
546.00	90.7
545.00	90.6
544.00	90.6
543.00	90.6
542.00	90.6
541.00	90.6
540.00	90.6
539.00	90.6
538.00	90.5
537.00	90.5
536.00	90.5
535.00	90.5
534.00	90.5
533.00	90.4
532.00	90.4
531.00	90.4
530.00	90.4
529.00	90.3
528.00	90.3
527.00	90.3
526.00	90.3
525.00	90.3
524.00	90.2
523.00	90.2
522.00	90.1
521.00	90.1
520.00	90.0
519.00	90.0
518.00	90.0
517.00	90.0
516.00	90.0
515.00	90.0
514.00	89.9
513.00	89.9
512.00	89.9
511.00	89.9
510.00	89.9
509.00	89.9
508.00	89.8
507.00	89.8
506.00	89.8
505.00	89.7
504.00	89.7
503.00	89.7
502.00	89.6
501.00	89.6
500.00	89.6
499.00	89.5
498.00	89.5
497.00	89.5
496.00	89.5
495.00	89.4
494.00	89.4
493.00	89.4
492.00	89.4
491.00	89.4
490.00	89.3
489.00	89.3
488.00	89.3
487.00	89.3
486.00	89.2
485.00	89.2
484.00	89.2
483.00	89.1
482.00	89.1
481.00	89.0
480.00	89.0
479.00	88.9
478.00	88.9
477.00	88.9
476.00	88.8
475.00	88.8
474.00	88.8
473.00	88.8
472.00	88.7
471.00	88.7
470.00	88.7
469.00	88.6
468.00	88.6
467.00	88.6
466.00	88.6
465.00	88.6
464.00	88.5
463.00	88.5
462.00	88.5
461.00	88.5
460.00	88.5
459.00	88.4
458.00	88.4
457.00	88.4
456.00	88.3
455.00	88.3
454.00	88.3
453.00	88.3
452.00	88.2
451.00	88.2
450.00	88.2
449.00	88.1
448.00	88.1
447.00	88.0
446.00	88.0
445.00	88.0
444.00	87.9
443.00	87.9
442.00	87.9
441.00	87.9
440.00	87.8
439.00	87.8
438.00	87.8
437.00	87.8
436.00	87.7
435.00	87.7
434.00	87.6
433.00	87.6
432.00	87.6
431.00	87.5
430.00	87.5
429.00	87.5
428.00	87.4
427.00	87.4
426.00	87.4
425.00	87.3
424.00	87.3
423.00	87.3
422.00	87.2
421.00	87.2
420.00	87.2
419.00	87.2
418.00	87.1
417.00	87.1
416.00	87.1
415.00	87.0
414.00	87.0
413.00	87.0
412.00	87.0
411.00	86.9
410.00	86.9
409.00	86.9
408.00	86.9
407.00	86.8
406.00	86.8
405.00	86.8
404.00	86.7
403.00	86.7
402.00	86.7
401.00	86.7
400.00	86.6
399.00	86.6
398.00	86.6
397.00	86.5
396.00	86.5
395.00	86.5
394.00	86.4
393.00	86.4
392.00	86.3
391.00	86.3
390.00	86.3
389.00	86.2
388.00	86.2
387.00	86.1
386.00	86.1
385.00	86.1
384.00	86.1
383.00	86.1
382.00	86.1
381.00	86.0
380.00	86.0
379.00	86.0
378.00	86.0
377.00	86.0
376.00	86.0
375.00	85.9
374.00	85.9
373.00	85.9
372.00	85.8
371.00	85.8
370.00	85.8
369.00	85.7
368.00	85.7
367.00	85.7
366.00	85.7
365.00	85.6
364.00	85.6
363.00	85.6
362.00	85.5
361.00	85.5
360.00	85.5
359.00	85.4
358.00	85.4
357.00	85.4
356.00	85.3
355.00	85.3
354.00	85.3
353.00	85.3
352.00	85.2
351.00	85.2
350.00	85.1
349.00	85.1
348.00	85.0
347.00	85.0
346.00	84.9
345.00	84.9
344.00	84.9
343.00	84.9
342.00	84.8
341.00	84.8
340.00	84.7
339.00	84.7
338.00	84.6
337.00	84.5
336.00	84.5
335.00	84.4
334.00	84.4
333.00	84.4
332.00	84.3
331.00	84.3
330.00	84.3
329.00	84.3
328.00	84.2
327.00	84.2
326.00	84.2
325.00	84.1
324.00	84.1
323.00	84.0
322.00	84.0
321.00	84.0
320.00	84.0
319.00	83.9
318.00	83.9
317.00	83.9
316.00	83.9
315.00	83.8
314.00	83.8
313.00	83.7
312.00	83.7
311.00	83.6
310.00	83.6
309.00	83.6
308.00	83.6
307.00	83.5
306.00	83.5
305.00	83.5
304.00	83.4
303.00	83.4
302.00	83.4
301.00	83.4
300.00	83.3
299.00	83.3
298.00	83.3
297.00	83.2
296.00	83.2
295.00	83.2
294.00	83.1
293.00	83.1
292.00	83.1
291.00	83.0
290.00	83.0
289.00	83.0
288.00	83.0
287.00	83.0
286.00	82.9
285.00	82.9
284.00	82.9
283.00	82.9
282.00	82.9
281.00	82.8
280.00	82.8
279.00	82.7
278.00	82.6
277.00	82.5
276.00	82.3
275.00	82.2
274.00	82.1
273.00	82.1
272.00	82.1
271.00	82.2
270.00	82.3
269.00	82.4
268.00	82.4
267.00	82.4
266.00	82.3
265.00	82.3
264.00	82.2
263.00	82.2
262.00	82.2
261.00	82.1
260.00	82.1
259.00	82.1
258.00	82.0
257.00	82.0
256.00	82.0
255.00	82.0
254.00	82.0
253.00	81.9
252.00	81.9
251.00	81.9
250.00	81.9
249.00	81.9
248.00	81.9
247.00	81.8
246.00	81.8
245.00	81.8
244.00	81.7
243.00	81.6
242.00	81.6
241.00	81.5
240.00	81.4
239.00	81.3
238.00	81.2
237.00	81.0
236.00	80.8
235.00	80.6
234.00	80.4
233.00	80.1
232.00	79.7
231.00	79.4
230.00	79.0
229.00	78.5
228.00	78.0
227.00	77.4
226.00	76.9
225.00	76.2
224.00	75.6
223.00	74.9
222.00	74.2
221.00	73.5
220.00	72.7
219.00	71.9
218.00	71.1
217.00	70.3
216.00	69.5
215.00	68.7
214.00	68.0
213.00	67.4
212.00	66.7
211.00	66.1
210.00	65.6
209.00	65.0
208.00	64.5
207.00	64.1
206.00	63.7
205.00	63.3
204.00	62.8
203.00	62.4
202.00	61.9
201.00	61.6
200.00	61.3

