Wavelength	T
600.00	102.4
599.00	102.4
598.00	102.4
597.00	102.4
596.00	102.4
595.00	102.4
594.00	102.4
593.00	102.4
592.00	102.4
591.00	102.4
590.00	102.4
589.00	102.4
588.00	102.4
587.00	102.4
586.00	102.4
585.00	102.4
584.00	102.4
583.00	102.4
582.00	102.4
581.00	102.4
580.00	102.4
579.00	102.4
578.00	102.4
577.00	102.4
576.00	102.4
575.00	102.4
574.00	102.4
573.00	102.4
572.00	102.4
571.00	102.4
570.00	102.4
569.00	102.4
568.00	102.4
567.00	102.4
566.00	102.4
565.00	102.4
564.00	102.4
563.00	102.4
562.00	102.4
561.00	102.4
560.00	102.4
559.00	102.4
558.00	102.4
557.00	102.4
556.00	102.4
555.00	102.4
554.00	102.4
553.00	102.4
552.00	102.4
551.00	102.4
550.00	102.4
549.00	102.4
548.00	102.4
547.00	102.4
546.00	102.4
545.00	102.4
544.00	102.4
543.00	102.4
542.00	102.4
541.00	102.4
540.00	102.4
539.00	102.5
538.00	102.5
537.00	102.5
536.00	102.5
535.00	102.5
534.00	102.5
533.00	102.5
532.00	102.5
531.00	102.5
530.00	102.5
529.00	102.5
528.00	102.5
527.00	102.5
526.00	102.5
525.00	102.5
524.00	102.5
523.00	102.5
522.00	102.5
521.00	102.5
520.00	102.4
519.00	102.4
518.00	102.5
517.00	102.5
516.00	102.5
515.00	102.5
514.00	102.5
513.00	102.5
512.00	102.5
511.00	102.5
510.00	102.5
509.00	102.5
508.00	102.6
507.00	102.6
506.00	102.6
505.00	102.5
504.00	102.5
503.00	102.5
502.00	102.5
501.00	102.5
500.00	102.5
499.00	102.5
498.00	102.5
497.00	102.5
496.00	102.5
495.00	102.5
494.00	102.5
493.00	102.5
492.00	102.5
491.00	102.5
490.00	102.5
489.00	102.5
488.00	102.5
487.00	102.5
486.00	102.5
485.00	102.5
484.00	102.5
483.00	102.5
482.00	102.4
481.00	102.4
480.00	102.4
479.00	102.4
478.00	102.4
477.00	102.4
476.00	102.4
475.00	102.4
474.00	102.4
473.00	102.4
472.00	102.4
471.00	102.4
470.00	102.4
469.00	102.4
468.00	102.4
467.00	102.4
466.00	102.4
465.00	102.4
464.00	102.4
463.00	102.4
462.00	102.4
461.00	102.4
460.00	102.4
459.00	102.4
458.00	102.4
457.00	102.4
456.00	102.4
455.00	102.4
454.00	102.4
453.00	102.4
452.00	102.4
451.00	102.4
450.00	102.3
449.00	102.3
448.00	102.3
447.00	102.3
446.00	102.3
445.00	102.3
444.00	102.3
443.00	102.3
442.00	102.3
441.00	102.3
440.00	102.3
439.00	102.3
438.00	102.3
437.00	102.3
436.00	102.3
435.00	102.3
434.00	102.2
433.00	102.2
432.00	102.2
431.00	102.3
430.00	102.3
429.00	102.3
428.00	102.3
427.00	102.3
426.00	102.3
425.00	102.3
424.00	102.2
423.00	102.2
422.00	102.2
421.00	102.2
420.00	102.2
419.00	102.2
418.00	102.2
417.00	102.2
416.00	102.2
415.00	102.2
414.00	102.2
413.00	102.3
412.00	102.3
411.00	102.3
410.00	102.3
409.00	102.3
408.00	102.3
407.00	102.3
406.00	102.3
405.00	102.3
404.00	102.3
403.00	102.3
402.00	102.3
401.00	102.3
400.00	102.3
399.00	102.3
398.00	102.3
397.00	102.3
396.00	102.3
395.00	102.3
394.00	102.3
393.00	102.3
392.00	102.3
391.00	102.3
390.00	102.3
389.00	102.3
388.00	102.3
387.00	102.3
386.00	102.3
385.00	102.3
384.00	102.3
383.00	102.3
382.00	102.4
381.00	102.4
380.00	102.4
379.00	102.4
378.00	102.4
377.00	102.4
376.00	102.4
375.00	102.4
374.00	102.4
373.00	102.4
372.00	102.4
371.00	102.4
370.00	102.4
369.00	102.4
368.00	102.4
367.00	102.4
366.00	102.4
365.00	102.4
364.00	102.4
363.00	102.4
362.00	102.4
361.00	102.4
360.00	102.4
359.00	102.4
358.00	102.4
357.00	102.4
356.00	102.4
355.00	102.4
354.00	102.4
353.00	102.4
352.00	102.4
351.00	102.4
350.00	102.4
349.00	102.4
348.00	102.4
347.00	102.4
346.00	102.4
345.00	102.4
344.00	102.4
343.00	102.4
342.00	102.4
341.00	102.4
340.00	102.3
339.00	102.3
338.00	102.2
337.00	102.2
336.00	102.1
335.00	102.1
334.00	102.1
333.00	102.2
332.00	102.2
331.00	102.2
330.00	102.2
329.00	102.2
328.00	102.2
327.00	102.2
326.00	102.2
325.00	102.2
324.00	102.2
323.00	102.2
322.00	102.2
321.00	102.2
320.00	102.2
319.00	102.2
318.00	102.2
317.00	102.2
316.00	102.2
315.00	102.2
314.00	102.2
313.00	102.1
312.00	102.1
311.00	102.1
310.00	102.1
309.00	102.1
308.00	102.1
307.00	102.1
306.00	102.2
305.00	102.2
304.00	102.2
303.00	102.2
302.00	102.2
301.00	102.2
300.00	102.2
299.00	102.2
298.00	102.2
297.00	102.2
296.00	102.2
295.00	102.2
294.00	102.2
293.00	102.2
292.00	102.2
291.00	102.2
290.00	102.2
289.00	102.2
288.00	102.2
287.00	102.2
286.00	102.2
285.00	102.2
284.00	102.2
283.00	102.2
282.00	102.2
281.00	102.2
280.00	102.2
279.00	102.0
278.00	101.6
277.00	101.0
276.00	100.3
275.00	99.8
274.00	99.6
273.00	99.8
272.00	100.2
271.00	100.9
270.00	101.5
269.00	102.0
268.00	102.3
267.00	102.4
266.00	102.3
265.00	102.2
264.00	102.2
263.00	102.3
262.00	102.3
261.00	102.3
260.00	102.3
259.00	102.3
258.00	102.3
257.00	102.3
256.00	102.3
255.00	102.3
254.00	102.3
253.00	102.3
252.00	102.3
251.00	102.3
250.00	102.3
249.00	102.3
248.00	102.3
247.00	102.3
246.00	102.3
245.00	102.3
244.00	102.3
243.00	102.3
242.00	102.4
241.00	102.4
240.00	102.4
239.00	102.4
238.00	102.4
237.00	102.4
236.00	102.4
235.00	102.4
234.00	102.4
233.00	102.4
232.00	102.4
231.00	102.4
230.00	102.4
229.00	102.4
228.00	102.4
227.00	102.4
226.00	102.4
225.00	102.4
224.00	102.4
223.00	102.5
222.00	102.5
221.00	102.5
220.00	102.5
219.00	102.5
218.00	102.5
217.00	102.5
216.00	102.4
215.00	102.4
214.00	102.5
213.00	102.5
212.00	102.5
211.00	102.5
210.00	102.5
209.00	102.6
208.00	102.5
207.00	102.4
206.00	102.3
205.00	102.0
204.00	101.3
203.00	100.4
202.00	99.3
201.00	98.2
200.00	97.4

